Temperature(Degree Celsius) Resistance(Ohm)
90.0 4.82
87.0 5.31
80.0 6.65
71.8 8.4
71.5 8.62
66.9 10.12
59.5 13.2
58.3 13.51
53.5 15.4
51.2 17.28
49.0 18.2
45.6 21.1
38.0 28.2
36.9 29.0
28.5 40.0
26.5 44.3
20.9 55.2
17.0 69.0
14.1 72.9
11.0 84.7
5.9 118.9
